电池电压 (V),盐度 (%),溶解氧 (mg/L),浑浊度 (NTU),pH,水温 (°C)
25.9,34.16,0,2.05,8.37,15
24.5,32.5,1.23,2.15,8.25,16
26.1,33,0.3,2.1,8.4,14
25,35,0.15,2,8.5,17
27,31.8,0,2.25,8.3,18
23.8,36.5,0,2.3,8.2,19
24.9,34.8,0.5,2,8.35,16
25.7,33.6,0.2,2.1,8.4,15
